***********************************************************************
data from : M Santos, C Noel, T Belmonte and L L Alves
Ref       : Journal of Physics D: Applied Physics 47(26)265201(2014)
DOI       : 10.1088/0022-3727/47/26/265201 
note      : See "Supplementary data file"
***********************************************************************
Dissociative Recombination (He2+ --> He + He*)
Energy (eV) 
152 Npts

2.36E-04 5.24E-04 9.31E-04 0.00145 0.00206 0.00284 0.00366 0.00458
0.00573 0.00693 0.00839 0.00953 0.01118 0.01311 0.01443 0.01639
0.01862 0.02048 0.02254 0.02560 0.02817 0.03003 0.03304 0.03521
0.03875 0.04130 0.04544 0.04843 0.05162 0.05502 0.05864 0.06250
0.06661 0.07099 0.07811 0.08064 0.08595 0.09161 0.09458 0.10080
0.10406 0.11091 0.11821 0.12599 0.13007 0.13429 0.13863 0.14312
0.14776 0.15254 0.18469 0.19684 0.21659 0.22360 0.23085 0.24604
0.27072 0.29788 0.30753 0.32777 0.33839 0.38439 0.40969 0.46539
0.51209 0.58171 0.64007 0.77495 0.85270 1.00000 1.50360 2.00719
2.15827 2.35971 2.56115 2.81295 3.06475 3.31655 3.56835 3.87050
4.12230 4.42446 4.72662 5.02878 5.33094 5.68345 6.03597 6.33813
6.69065 7.04317 7.44604 7.79856 8.20144 8.60432 9.00719 9.41007
9.81295 10.21583 10.66906 11.12230 11.52518 11.97842 12.48201 12.93525
13.43885 13.89209 14.39568 14.89928 15.35971 15.89928 16.43885
16.97842 17.51799 18.05755 18.41727 18.59712 18.86691 19.13669
19.40647 19.67626 20.03597 20.30576 20.57554 20.84532 21.47482
22.01439 22.64388 23.27338 23.90288 24.44245 25.07194 25.70144
26.33094 26.96043 27.67986 28.30935 28.93885 29.65827 30.28777
31.00719 31.63669 32.35612 33.07554 33.79496 34.51439 35.14388
35.95324 36.67266 37.39209 38.11151 38.83094 39.64029

Cross-Section ((cm2) / 1e-16)

34.69746 17.84126 10.50194 7.93953 5.91908 4.68865 3.90896 3.34436
2.77770 2.40086 2.18194 1.89668 1.79313 1.74565 1.50509 1.37771
1.33572 1.23229 1.22372 1.19408 1.15585 1.03478 0.74390 0.69707
0.62720 0.48457 0.48953 0.43411 0.50459 0.36344 0.44308 0.37627
0.43850 0.31442 0.27345 0.30536 0.23061 0.24765 0.15293 0.26850
0.20958 0.24272 0.16244 0.18633 0.20376 0.16444 0.16184 0.17094
0.09941 0.18816 0.09918 0.10601 0.06948 0.10257 0.09177 0.08889
0.06497 0.08617 0.05301 0.05648 0.09854 0.09956 0.07578 0.04093
0.05545 0.05781 0.05328 0.05009 0.04616 0.00208 0.03652 0.06175
0.08862 0.11255 0.16140 0.20493 0.31829 0.39976 0.45322 0.56540
0.67405 0.75214 0.90447 1.02922 1.16608 1.34428 1.49563 1.59524
1.63519 1.65810 1.62827 1.52988 1.22343 0.90329 0.82595 0.54358
0.43688 0.30794 0.20981 0.12867 0.08866 0.04995 0.02476 0.02433
0.01222 0.01202 0.00055 0.00054 0.03189 0.04179 0.03083 0.03033
0.03982 0.03922 0.04854 0.11593 0.07673 0.09523 0.07566 0.04696
0.01861 0.05547 0.06429 0.25550 0.33263 0.66594 0.92802 0.94130
0.81804 0.53931 0.49089 0.47663 0.48713 0.50548 0.38009 0.29754
0.23233 0.20655 0.16654 0.11971 0.10370 0.11718 0.09417 0.10750
0.07800 0.07028 0.06253 0.04816 0.04769 0.04049 0.04011 0.05294